File: E2/1_5mM_kaucn4_h2o_1.nor
# XDI/1.0  Demeter/0.9.18
# Athena.element:              Au
# Athena.edge:                 l3
# Athena.e0:                   11930
# Athena.eshift:               -4.892
# Athena.rbkg:                 1
# Athena.standard:             None
# Athena.bkg_kweight:          2
# Athena.edge_step:            3.96855
# Athena.fixed_step:           no
# Athena.flatten:              yes
# Athena.pre_edge_range:       -250 -35
# Athena.pre_edge_line:        -7.994190 + 0.000684419 * E
# Athena.normalization_range:  20 750
# Athena.post_edge_polynomial: -109.588 + 0.018383 * E - 7.41835e-007 * E^2 + 0 * E^3
# Athena.spline_range_energy:  0.000 739.839
# Athena.clamps:               0/24
# Athena.spline_range_k:       0.000 13.935
# Athena.kweight:              2
# Athena.window:               hanning
# Athena.phase_correction:     0
# Athena.k_range:              3.000 11.935
# Athena.dk:                   1
# Athena.r_range:              1 3
# Athena.dr:                   0.0
# Athena.window:               hanning
# Athena.plot_multiplier:      1
# Athena.y_offset:             0
# ///
#------------------------
#   e         norm        nbkg        flat        fbkg        nder        nsec
  11714.124       0.00976105   0.00976105   0.00976105   0.00976105  -0.000266926   2.36436e-05
  11739.111       0.00586049   0.00586049   0.00586049   0.00586049  -0.000217637   8.83409e-07
  11763.585       0.00267445   0.00267445   0.00267445   0.00267445  -0.000114599  -2.6565e-06
  11785.406      -0.00130286  -0.00130286  -0.00130286  -0.00130286  -0.000106947   1.16619e-05
  11804.395      -0.00313042  -0.00313042  -0.00313042  -0.00313042  -1.92302e-05  -7.27831e-06
  11820.568      -0.00480488  -0.00480488  -0.00480488  -0.00480488  -0.000171864   3.30166e-05
  11833.987      -0.00501551  -0.00501551  -0.00501551  -0.00501551  -7.42666e-05  -8.21006e-06
  11844.674      -0.00512077  -0.00512077  -0.00512077  -0.00512077   0.000228634   6.86169e-06
  11852.677      -0.00490381  -0.00490381  -0.00490381  -0.00490381   0.000508225  -0.000111445
  11858.044      -0.00514639  -0.00514639  -0.00514639  -0.00514639  -4.75283e-06   0.000221042
  11861.008      -0.0047782  -0.0047782  -0.0047782  -0.0047782  -0.000277798   0.000527353
  11863.509      -0.00438036  -0.00438036  -0.00438036  -0.00438036   0.000243683   0.00062353
  11866.010      -0.00363494  -0.00363494  -0.00363494  -0.00363494   0.000672183  -0.0009437
  11868.506      -0.00327672  -0.00327672  -0.00327672  -0.00327672   0.000810364   0.000645211
  11870.997      -0.00338127  -0.00338127  -0.00338127  -0.00338127   0.000603408   0.00035441
  11873.507      -0.00248881  -0.00248881  -0.00248881  -0.00248881  -0.000595554   0.00135441
  11876.019      -0.00145289  -0.00145289  -0.00145289  -0.00145289   0.000146051   0.000734933
  11878.507      -0.000493577  -0.000493577  -0.000493577  -0.000493577   0.000270362   0.000738535
  11881.008       0.00136806   0.00136806   0.00136806   0.00136806   0.000322404  -0.0013477
  11883.517       0.00268921   0.00268921   0.00268921   0.00268921   2.86415e-05   1.72646e-05
  11886.008       0.0045904   0.0045904   0.0045904   0.0045904   0.000820086  -0.000619304
  11888.507       0.00663145   0.00663145   0.00663145   0.00663145   0.00152325  -0.00034704
  11891.006       0.00881846   0.00881846   0.00881846   0.00881846   0.00103483   0.0012453
  11893.507       0.0118872   0.0118872   0.0118872   0.0118872   0.000819511   0.000412482
  11896.008       0.0168054   0.0168054   0.0168054   0.0168054   0.00191981  -7.06918e-05
  11898.511       0.0212244   0.0212244   0.0212244   0.0212244   0.00289895   0.00160399
  11901.003       0.0292083   0.0292083   0.0292083   0.0292083   0.00379337  -0.00119399
  11903.514       0.0375291   0.0375291   0.0375291   0.0375291   0.00367645  -8.21331e-05
  11906.013       0.0499969   0.0499969   0.0499969   0.0499969   0.00446857   0.00181181
  11908.514       0.0680863   0.0680863   0.0680863   0.0680863   0.00789734   0.000499747
  11911.004       0.097368   0.097368   0.097368   0.097368   0.0154791   0.000244506
  11913.506       0.147179       0.147179       0.147179       0.147179       0.0259139   0.00678966
  11916.011       0.238158       0.238158       0.238158       0.238158       0.0515348   0.0213931
  11918.509       0.464082       0.464082       0.464082       0.464082       0.139974       0.0397984
  11921.009        1.0046        1.0046        1.0046        1.0046       0.261468      -0.00437935
  11923.498        1.37547        1.37547        1.37547        1.37547      -0.0501188  -0.133798
  11926.019        1.23778        1.23778        1.23778        1.23778       0.0148595   0.0349994
  11928.509        1.20931        1.20931        1.20931        1.20931      -0.0855385  -0.0678537
  11931.001       0.91121       0.226107       0.911211       0.226108      -0.107997       0.0284242
  11933.506       0.731771       0.496246       0.731774       0.49625      -0.0309286   0.0254881
  11936.006       0.71937       0.696299       0.719379       0.696308       0.0176703   0.0204837
  11938.508       0.80678       0.837314       0.806797       0.837331       0.049126   0.00502807
  11941.010       0.913415       0.929588       0.913442       0.929615       0.0380165  -0.00873159
  11943.513       0.985554       0.983453       0.985593       0.983493       0.0222723   0.0082294
  11945.999        1.02789        1.00915        1.02794        1.0092       0.00268016  -0.011211
  11948.517        1.01122        1.01739        1.0113        1.01746      -0.0142153  -0.00752385
  11951.011       0.967705        1.01821       0.967797        1.01831      -0.0181747  -0.000446498
  11953.506       0.934266        1.01835       0.934379        1.01847      -0.0141295  -0.00196257
  11956.008       0.918715        1.01839       0.918852        1.01852      -0.00276165   0.00358664
  11958.499       0.930355        1.01832       0.930519        1.01848       0.00756851   0.00100209
  11960.998       0.954745        1.01815       0.954937        1.01835       0.0107433   0.00412297
  11963.503       0.978906        1.0179       0.97913        1.01812       0.0129827   0.0101412
  11966.004        1.01688        1.01756        1.01713        1.01782       0.0121242   0.00105338
  11968.262        1.04725        1.01719        1.04754        1.01748       0.00855108  -0.0027135
  11971.207        1.08643        1.01662        1.08677        1.01696       0.0126874  -0.00376355
  11975.547        1.12746        1.01563        1.12787        1.01604       0.00271895  -0.00347909
  11981.635        1.09812        1.01399        1.09864        1.01451      -0.0115636  -0.00128437
  11988.198        1.01532        1.01198        1.01597        1.01263      -0.0107314   0.00149416
  11995.076       0.959022        1.00973       0.959841        1.01055      -0.00380788   0.00163793
  12002.244       0.954762        1.00739       0.955768        1.00839       0.00120062   0.000843275
  12009.735       0.977963        1.00509       0.979184        1.00632       0.00163477  -0.00031396
  12017.531       0.997054        1.00304       0.998522        1.0045       0.00214677  -0.000375294
  12025.615        1.00806        1.00128        1.00981        1.00303      -0.000845471  -0.000927821
  12034.012        1.002       0.999814        1.00406        1.00188      -0.000636718   0.000344341
  12042.718       0.998002       0.998633        1.00042        1.00105       0.00185713   3.69474e-05
  12051.722        1.00305       0.997719        1.00587        1.00054       0.001047   6.16851e-05
  12061.037        1.01261       0.997039        1.01587        1.0003       0.000673337   0.000152962
  12070.653        1.01816       0.996554        1.02191        1.00031      -0.000987076  -0.000338557
  12080.576       0.997017       0.99621        1.00132        1.00051      -0.00143709   0.000489025
  12090.797       0.984116       0.995938       0.989015        1.00084      -0.0011615   0.000316511
  12101.322       0.974868       0.995657       0.980424        1.00121       0.000518206   0.000674872
  12112.159       0.982851       0.99527       0.989128        1.00155       0.00147533   0.000120691
  12123.305       0.995216       0.994682        1.00228        1.00175       0.0016667   0.000213779
  12134.753        1.00468       0.993875        1.0126        1.0018      -7.46884e-05  -2.62858e-06
  12146.487        1.00163       0.992856        1.01047        1.0017      -0.000913987   0.000169573
  12158.553       0.993068       0.991626        1.00293        1.00148      -0.000776237   0.000188402
  12170.896       0.984716       0.990202       0.995662        1.00115      -0.00070066   9.94669e-05
  12183.581       0.985502       0.98859       0.997625        1.00071       0.00035248   5.78534e-05
  12196.545       0.987524       0.986813        1.00091        1.0002      -0.000537616  -7.50521e-05
  12209.830       0.98105       0.984887       0.995802       0.999639       0.000339964   0.000183029
  12223.398       0.979113       0.982842       0.995325       0.999053      -0.000103605  -2.03134e-05
  12237.283       0.974451       0.980702       0.992227       0.998478      -0.000253269   2.4878e-05
  12251.469       0.979589       0.978502       0.999038       0.997951      -0.000137325  -0.000200727
  12265.971       0.980565       0.976274        1.0018       0.997511      -8.6306e-05  -7.65782e-05
  12280.763       0.980232       0.974027        1.00337       0.997169       0.000190193  -4.70413e-05
  12295.869       0.977299       0.971748        1.00247       0.99692      -0.000945447  -0.000116316
  12311.276       0.968998       0.969431       0.996327       0.996761      -0.000176505  -9.99254e-06
  12326.981       0.961149       0.967066       0.99077       0.996687      -0.000196261   0.00012406
  12342.992       0.960302       0.96464       0.992354       0.996692      -0.000586223   4.55318e-05
  12359.325       0.964743       0.962137       0.999373       0.996767      -0.000344459  -8.94967e-05
  12375.942       0.961978       0.95955       0.999333       0.996905       4.0203e-06  -7.7076e-05
  12392.879       0.956184       0.956856       0.996424       0.997096       0.000578722   6.72942e-05
  12410.118       0.953715       0.95404       0.997001       0.997326       1.57145e-05   3.75308e-05
  12427.662       0.950412       0.951085       0.996912       0.997584       8.0086e-05   9.33994e-05
  12438.331       0.95089       0.949236       0.999401       0.997746      -0.000513965  -2.49734e-05