File: E2/C1s_Imidazole_ISEELS_Hitchcock_Norm_Athena.txt
# XDI/1.0 Athena/0.9.24
# Element.edge:                  K
# Element.symbol:                C
# Column.1:                      energy eV
# Column.2:                      norm
# Column.3:                      nbkg
# Column.4:                      flat
# Column.5:                      fbkg
# Column.6:                      nder
# Column.7:                      nsec
# Athena.e0:                     286.1819
# Athena.eshift:                 0
# Athena.rbkg:                   1.0
# Athena.importance:             1
# Athena.standard:               None
# Athena.bkg_kweight:            2
# Athena.edge_step:              11035.1
# Athena.fixed_step:             no
# Athena.pre_edge_range:         -8.364 -1.499
# Athena.pre_edge_line:          4248.94 - 7.2978 * E
# Athena.normalization_range:    21.451 37.864
# Athena.post_edge_polynomial:   61847.5 - 170.004 * E + 0 * E^2 + 0 * E^3
# Athena.spline_range_energy:    0.000 38.795
# Athena.clamps:                 0 24
# Athena.spline_range_k:         0.000 3.191
# Athena.kweight:                2
# Athena.window:                 hanning
# Athena.phase_correction:       no
# Athena.k_range:                1.191 3.000
# Athena.dk:                     1
# Athena.r_range:                1 3
# Athena.dr:                     0.0
# Athena.window:                 hanning
# Athena.plot_multiplier:        1
# Athena.y_offset:               0
# ///
#------------------------
#   e         norm        flat        fbkg        nder        nsec
  277.818       0.0122895   0.0122895  -0.201294      -0.060353   0.300405
  278.345       0.0076814   0.0076814  -0.200945       0.0138081  -0.0638873
  279.137      -0.00535931  -0.00535931  -0.200422      -0.0234602   0.168704
  279.664       0.00419171   0.00419171  -0.200073       0.0173714  -0.149238
  280.324      -0.00295632  -0.00295632  -0.199637       0.0303131   0.0925667
  280.851      -0.00309376  -0.00309376  -0.199288       0.0176748   0.18634
  281.379      -0.000828953  -0.000828953  -0.198939      -0.00716608   0.14723
  281.906      -0.00433792  -0.00433792  -0.19859       0.0243606  -0.00265126
  282.434      -0.0120106  -0.0120106  -0.198241      -0.0154902   0.125391
  282.962      -0.00317898  -0.00317898  -0.197892      -0.00232463   0.123655
  283.489       0.000306294   0.000306294  -0.197543       0.0123311   0.0467982
  284.149      -0.00384421  -0.00384421  -0.197107      -0.0164616    1.04451
  284.375       0.000632628   0.000632628  -0.196958       0.0604611   0.175224
  284.643       0.00967485   0.00967485  -0.19678      -0.0377815   -1.11675
  284.91       0.0167152   0.0167152  -0.196603       0.148026      -0.127167
  285.178       0.0340506   0.0340506  -0.196426       0.0903617   0.44723
  285.446       0.0479544   0.0479544  -0.196249       0.111719        3.62333
  285.714       0.211136       0.211136      -0.196072        1.17531        8.08092
  285.981       0.777825       0.777825      -0.195895        3.57799        12.001
  286.249        1.90731        1.9083      -0.19473        3.75526       -9.96756
  286.517        2.52605        2.53098      -0.190606       0.822908       -7.17434
  286.784        2.58542        2.5943      -0.186482      -0.259897       -2.92185
  287.052        2.26416        2.27699      -0.182358       -1.75918      -0.138196
  287.32        1.67552        1.6923      -0.178234       -2.52589        2.18883
  287.587        1.12434        1.14507      -0.17411       -1.96847        3.48505
  287.855       0.830254       0.854924      -0.169986      -0.563166       0.155414
  288.123       0.672574       0.701191      -0.165862      -0.200096        3.38148
  288.39       0.614698       0.647263      -0.161737      -0.150975        3.01436
  288.658       0.56912       0.605631      -0.157613      -0.197961        1.54662
  288.926       0.526401       0.566859      -0.153489       0.162976        3.82964
  289.194       0.565184       0.60959      -0.149365       0.241997        1.66005
  289.461       0.600822       0.649175      -0.145241       0.150162       -1.80348
  289.729       0.558389       0.610689      -0.141117      -0.0676821   0.653765
  289.997       0.57601       0.632257      -0.136993       0.259084       0.942583
  290.264       0.669243       0.729437      -0.132869       0.405538       0.982004
  290.532       0.777622       0.841763      -0.128745       0.418048      -0.0640441
  290.8       0.881469       0.949557      -0.12462       0.41861       -2.19878
  291.067       0.972564        1.0446      -0.120496       0.307951       -1.15113
  291.335        1.03641        1.11239      -0.116372       0.228978        2.31664
  291.603        1.13088        1.21081      -0.112248       0.287363       0.798972
  291.871        1.19281        1.27668      -0.108124       0.283194        2.18956
  292.138        1.23265        1.32047      -0.104       0.0311186    1.98563
  292.406        1.25044        1.34221      -0.0998758  -0.341724       -1.587
  292.674        1.18147        1.27719      -0.0957516  -0.0273103    1.58105
  292.941        1.17588        1.27555      -0.0916275  -0.0863285   -2.49978
  293.209        1.11878        1.22239      -0.0875034  -0.1896      -0.55265
  293.477        1.03409        1.14165      -0.0833793  -0.0146858    2.62869
  293.745       0.997509        1.10902      -0.0792552  -0.285286       0.915231
  294.012       0.984709        1.10016      -0.0751311  -0.12834       -1.74458
  294.28       0.952366        1.07177      -0.071007   0.0290529  -0.300475
  294.548       0.937647        1.06099      -0.0668828  -0.00351749    1.74271
  294.815       0.94793        1.07522      -0.0627587  -0.160538      -0.475542
  295.083       0.940959        1.0722      -0.0586346   0.0515048   -1.3725
  295.351       0.937636        1.07282      -0.0545105  -0.0833146  -0.510826
  295.756       0.979982        1.12114      -0.0482727   0.119893      -0.270053
  296.283        1.0146        1.16353      -0.0401462   0.0379914   0.0268121
  296.811        1.10518        1.2619      -0.0320181   0.105981      -0.747836
  297.338        1.13516        1.29965      -0.0238901   0.132047       0.26359
  297.866        1.16436        1.33664      -0.015762  -0.0295889  -0.421428
  298.394        1.15859        1.33864      -0.00763393   0.0455145  -0.509144
  298.921        1.13657        1.3244       0.000494138  -0.0882584  -0.442341
  299.449        1.08684        1.28245       0.0086222  -0.0622918   0.0232702
  299.976        1.06896        1.27235       0.0167503  -0.123641      -0.368012
  300.504        1.03526        1.24643       0.0248768  -0.0560638  -0.409076
  301.031       0.998759        1.21771       0.0330049  -0.0424914   0.0573746
  301.559       0.993903        1.22063       0.0411329  -0.0510382  -0.11234
  302.087       0.93084        1.16535       0.049261  -0.124451       0.763397
  302.614       0.919111        1.1614       0.0573891   0.0099741  -0.0448605
  303.274       0.903434        1.15544       0.0675491  -0.0594795  -0.230873
  303.801       0.877513        1.1373       0.0756772  -0.049166  -0.221672
  304.329       0.847971        1.11554       0.0838053  -0.0442468   0.010678
  304.856       0.818772        1.09412       0.0919318   0.0019667   0.102429
  305.384       0.808268        1.09139       0.10006      -0.110326      -0.190211
  305.912       0.79101        1.08191       0.108188      -0.130965      -0.192151
  306.439       0.74576        1.04444       0.116316      -0.00496207   0.452837
  306.967       0.73502        1.04148       0.124444      -0.0533019   0.129881
  307.494       0.723611        1.03785       0.132572      -0.0916386  -0.216457
  308.022       0.690404        1.01242       0.1407      -0.0450135   0.136867
  308.55       0.672713        1.00251       0.148828      -0.0610143   0.236827
  309.077       0.671416        1.00899       0.156955       0.0297419  -0.0145379
  309.605       0.647822       0.993177       0.165083       0.016504   0.372401
  310.132       0.656716        1.00985       0.173211      -0.0584423  -0.144891
  310.66       0.641831        1.00274       0.181339      -0.0670039  -0.0596378
  311.188       0.625919       0.994612       0.189467       0.0419134   0.148748
  311.634       0.630949        1.00623       0.196347      -0.119481      -0.351328
  312.111       0.59778       0.980087       0.203691      -0.00126929   0.797635
  312.587       0.620937        1.01027       0.211035       0.00969141   0.0459475
  313.064       0.584476       0.980839       0.218379      -0.0489386   0.713085
  313.541       0.583086       0.986478       0.225723      -0.0553604   0.0925347
  314.017       0.574042       0.984461       0.233065      -0.115739      -0.273102
  314.494       0.550941       0.968389       0.240409       0.0416126   0.466352
  314.971       0.575496       0.999972       0.247753      -0.0544303  -0.133537
  315.448       0.555626       0.987131       0.255097      -0.0934099   0.0513566
  315.924       0.561162       0.999696       0.262441      -0.00342798  -0.569388
  316.401       0.541753       0.987316       0.269785       0.0695661  -0.0137706
  316.878       0.532597       0.985189       0.277129       0.0343022  -0.0305768
  317.354       0.53964       0.999259       0.284471       0.101401      -0.239793
  317.831       0.522209       0.988856       0.291815      -0.0662949   0.340039
  318.308       0.517802       0.991478       0.299159       0.00380984  -0.0171275
  318.784       0.524234        1.00494       0.306503      -0.00397193  -0.518914
  319.261       0.514028        1.00176       0.313847       0.0599762  -0.389366
  319.738       0.512414        1.00718       0.321191       0.0831081  -0.0839218
  320.214       0.493232       0.995021       0.328533      -0.0534156   0.510678
  320.691       0.499127        1.00794       0.335877       0.0359089   0.182536
  321.168       0.508692        1.02454       0.343221      -0.0447164  -0.2139
  321.644       0.490901        1.01378       0.350565       0.00614035  -0.16195
  322.121       0.463268       0.993172       0.357909      -0.0345045   0.422206
  322.598       0.466606        1.00354       0.365253      -0.0307713   0.0904379
  323.075       0.475074        1.01904       0.372597      -0.0288965  -0.467219
  323.551       0.448896       0.999884       0.379939       0.0218679   0.140822
  324.028       0.453597        1.01161       0.387283       0.0598435  -0.144413
  324.505       0.454305        1.01935       0.394627       0.0349134  -0.205578
  324.981       0.467762        1.03984       0.401971       0.100479       0.118814