File: E2/Imdz_Solution_35C_APS.txt
# XDI/1.0 Athena/0.9.24
# Element.edge:                  K
# Element.symbol:                N
# Column.1:                      energy eV
# Column.2:                      norm
# Column.3:                      nbkg
# Column.4:                      flat
# Column.5:                      fbkg
# Column.6:                      nder
# Column.7:                      nsec
# Athena.e0:                     400
# Athena.eshift:                 0
# Athena.rbkg:                   1.0
# Athena.importance:             1
# Athena.standard:               None
# Athena.bkg_kweight:            2
# Athena.edge_step:              0.0002820
# Athena.fixed_step:             no
# Athena.pre_edge_range:         -20.206 -1.606
# Athena.pre_edge_line:          0.002421 - 4.14502e-006 * E
# Athena.normalization_range:    19.827 50.632
# Athena.post_edge_polynomial:   0.003208 - 5.40903e-006 * E + 0 * E^2 + 0 * E^3
# Athena.spline_range_energy:    0.000 185.624
# Athena.clamps:                 0 24
# Athena.spline_range_k:         0.000 6.980
# Athena.kweight:                2
# Athena.window:                 hanning
# Athena.phase_correction:       no
# Athena.k_range:                3.000 4.980
# Athena.dk:                     1
# Athena.r_range:                1 3
# Athena.dr:                     0.0
# Athena.window:                 hanning
# Athena.plot_multiplier:        1
# Athena.y_offset:               0
# ///
#------------------------
#   e         norm        nbkg        flat        fbkg        nder        nsec
  379.774       0.0460823   0.0460786   0.0460786   0.0460786  -0.046478   0.0227685
  385.85      -0.0498351  -0.0498311  -0.0498311  -0.0498311  -0.0147883   0.00473674
  391.762       0.0294947   0.0294924   0.0294924   0.0294924  -0.0229015  -0.00205563
  396.998       0.0135425   0.0135414   0.0135414   0.0135414  -0.223526      -0.705641
  397.278       0.0378173   0.0378142   0.0378142   0.0378142  -0.0653738  -0.32923
  397.58      -0.013994  -0.0139929  -0.0139929  -0.0139929  -0.520714       -1.00051
  397.879       0.0370955   0.0370925   0.0370925   0.0370925   0.067919   -3.65903
  398.142      -0.00263149  -0.00263128  -0.00263128  -0.00263128   0.3319       -2.91372
  398.416       0.051265   0.0512609   0.0512609   0.0512609   0.620945       0.323351
  398.677       0.0682344   0.068229   0.068229   0.068229  -0.123761      -0.68765
  399.007      -0.0230553  -0.0230534  -0.0230534  -0.0230534   0.361375        14.0078
  399.245       0.228841       0.228823       0.228823       0.228823        1.04229        5.65644
  399.563       0.84381       0.843742       0.843742       0.843742        2.22911        3.21373
  399.869        1.50758        1.50746        1.50746        1.50746       0.742144       -10.6205
  400.131        1.44145      -0.595926        1.442      -0.595259       -1.68834       -6.30554
  400.395       0.900347      -0.434579       0.902127      -0.432726       -1.46637        5.47544
  400.678       0.539559      -0.27109       0.542634      -0.267971      -0.593022        11.6326
  401.016       0.71801      -0.0871723   0.722587      -0.0825376   0.941645        4.16007
  401.353        1.23388       0.0835492    1.23993       0.0896941    1.34246      -0.217125
  401.676        1.44633       0.236071        1.45381       0.243665      -0.364325       -6.99799
  401.965        1.15363       0.363116        1.16242       0.372004      -0.839198       0.392591
  402.264       0.743159       0.486196       0.75333       0.496426       -1.36858        3.80146
  402.543       0.510053       0.592754       0.521489       0.604231      -0.0878705    2.46313
  402.827       0.483291       0.694266       0.496006       0.70702      -0.421154      -0.417471
  403.102       0.502773       0.785304       0.516718       0.79929       0.608762       -1.15726
  403.436       0.552705       0.886918       0.568142       0.9024       0.336862       0.177474
  403.802       0.653357       0.987418       0.670425        1.00454      -0.0575662  -0.768355
  404.113       0.717404        1.06443       0.735862        1.08294       0.918201       -2.30385
  404.422       0.790782        1.13344       0.810619        1.15334       0.374281        2.90269
  404.687       0.884572        1.18705       0.905591        1.20814       0.105591        1.35101
  404.957       0.945225        1.23627       0.967447        1.25857       0.180078        3.11099
  405.235        1.12056        1.28184        1.14401        1.30538       0.065418   -1.63923
  405.55        1.18372        1.32722        1.20858        1.35218       0.457404      -0.903958
  405.875        1.22922        1.36757        1.25553        1.39398       0.434444        4.07494
  406.199        1.38225        1.4016        1.41        1.42946       0.180439       -2.97246
  406.495        1.36641        1.4274        1.3955        1.45659       0.304143        3.29359
  406.787        1.51109        1.44831        1.54147        1.47881       0.240795       -5.31976
  407.064        1.4609        1.46421        1.49253        1.49596       0.579844       0.764865
  407.332        1.5053        1.47613        1.53812        1.50907      -0.989038       -2.69648
  407.595        1.4622        1.48468        1.49621        1.51881       0.524006       -7.9406
  407.902        1.38779        1.49102        1.42318        1.52652       0.105567        1.67442
  408.23        1.33844        1.49378        1.3753        1.53075      -0.29611       0.438324
  408.556        1.26865        1.49273        1.30698        1.53117       0.435511        2.13496
  408.856        1.40185        1.48875        1.44151        1.52853      -0.367468       -3.76597
  409.142        1.27185        1.48254        1.3128        1.5236       0.164962       0.55486
  409.391        1.34795        1.47538        1.39001        1.51756       0.329765       -2.66718
  409.683        1.31623        1.46514        1.3596        1.50862      -0.0483635    1.05145
  409.993        1.35154        1.45234        1.3963        1.49721       0.0869142   -1.28932
  410.342        1.31743        1.43598        1.36376        1.48242       0.329963        2.46556
  410.661        1.33971        1.41959        1.38747        1.46745      -0.575683        2.63722
  410.976        1.43148        1.40231        1.48064        1.45158       0.316207       -3.33562
  411.258        1.46632        1.38624        1.51674        1.43678      -0.200395       -1.78503
  411.535        1.49862        1.37008        1.55028        1.42187       0.176539       -4.62988
  411.822        1.48654        1.35328        1.53949        1.40635       0.453009       0.0463761
  412.1        1.48028        1.33712        1.53447        1.39144       0.174351        2.58493
  412.412        1.4971        1.31927        1.55269        1.37499      -0.309702        1.88383
  412.753        1.43527        1.30029        1.4924        1.35754      -0.351933       0.0710575
  413.098        1.38738        1.28159        1.44606        1.34038       0.033512    1.77213
  413.401        1.508        1.26561        1.56803        1.32575      -0.19643       -6.02307
  413.693        1.46102        1.25053        1.52236        1.31198      -0.125461       -8.18221
  413.946        1.2985        1.23775        1.36098        1.30035       0.00830677    5.11643
  414.229        1.36518        1.22376        1.42893        1.28762      -0.949943       -2.31691
  414.523        1.28349        1.20959        1.34857        1.27476      -0.065512   -1.91563
  414.853        1.25152        1.19407        1.31808        1.26072       0.472171       0.675313
  415.174        1.30553        1.17937        1.37352        1.24747      -0.0810124    1.0732
  415.491        1.28306        1.16523        1.35248        1.23475      -0.195092       -1.44731
  415.771        1.21021        1.15307        1.28089        1.22385       0.100505       0.790614
  416.065        1.13135        1.14063        1.20335        1.21272      -0.315766        2.50573
  416.332        1.13251        1.12963        1.20571        1.20292       0.101241      -0.609773
  416.605        1.07509        1.11861        1.14952        1.19312      -0.0483386   0.757859
  416.876        1.21093        1.10795        1.28656        1.18367      -0.0526161   -3.64505
  417.224        1.12071        1.09462        1.19791        1.1719      -0.0915831   -1.63732
  417.549        1.06631        1.08258        1.14497        1.16132       0.0599212   -1.28764
  417.853        1.04207        1.07163        1.12209        1.15173       0.582654       0.68486
  418.148        1.03827        1.06132        1.11961        1.14274      -0.2555      -0.650496
  418.405       0.932898        1.05255        1.0154        1.13513       0.413079        4.03645
  418.678        1.0831        1.04351        1.16681        1.12731       0.639797       -2.1638
  418.977        1.06921        1.03384        1.15426        1.11898      -0.459038      -0.600122
  419.322       0.932613        1.02307        1.01923        1.10976      -0.203345       0.149356
  419.647        1.00703        1.01326        1.09509        1.1014       0.455441       -2.6264
  421.165       0.902535       0.971627       0.99741        1.06657       0.0129506   0.0244942
  425.712       0.900029       0.883415        1.01529       0.998744       0.000571226   0.00257035
  430.726       0.906312       0.834546        1.04404       0.972348      -0.0109924  -0.0117465
  436.193       0.77248       0.814749       0.934726       0.977057       0.0064837   0.00881791
  442.03       0.81284       0.801711        1.00125       0.990185      -0.0259168   0.00106397
  448.312       0.876781       0.759151        1.09334       0.975779      -0.0114021  -0.0199981
  450.545       0.742807       0.729172       0.969385       0.95581      -0.0599946  -0.0217601