File: E2/N1s_Imidazole_ISEELS.txt
# XDI/1.0 Athena/0.9.24
# Element.edge:                  L3
# Element.symbol:                Sc
# Column.1:                      energy eV
# Column.2:                      norm
# Column.3:                      nbkg
# Column.4:                      flat
# Column.5:                      fbkg
# Column.6:                      nder
# Column.7:                      nsec
# Athena.e0:                     399.5223
# Athena.eshift:                 0
# Athena.rbkg:                   1.0
# Athena.importance:             1
# Athena.standard:               None
# Athena.bkg_kweight:            2
# Athena.edge_step:              5574.9
# Athena.fixed_step:             no
# Athena.pre_edge_range:         -6.740 -1.366
# Athena.pre_edge_line:          33532.3 - 63.2795 * E
# Athena.normalization_range:    21.585 36.452
# Athena.post_edge_polynomial:   65362.7 - 128.997 * E + 0 * E^2 + 0 * E^3
# Athena.spline_range_energy:    0.000 36.520
# Athena.clamps:                 0 24
# Athena.spline_range_k:         0.000 3.096
# Athena.kweight:                2
# Athena.window:                 hanning
# Athena.phase_correction:       no
# Athena.k_range:                1.096 3.000
# Athena.dk:                     1
# Athena.r_range:                1 3
# Athena.dr:                     0.0
# Athena.window:                 hanning
# Athena.plot_multiplier:        1
# Athena.y_offset:               0
# ///
#------------------------
#   e         norm        flat        fbkg        nder        nsec
  392.782       0.0209576   0.0209576   -1.55642      -0.210089       0.385534
  393.231       0.0128792   0.0128792   -1.55132       0.0426684  -0.894387
  393.681       0.00269137   0.00269137   -1.54622       0.0373406  -0.33915
  394.13      -0.00432643  -0.00432643   -1.54112      -0.0119241   0.148538
  394.58      -0.0219802  -0.0219802   -1.53602      -0.205021        1.40125
  395.029      -0.0254094  -0.0254094   -1.53092      -0.113025        1.5901
  395.478      -0.00889893  -0.00889893   -1.52582      -0.12881       0.678368
  395.928      -0.00834577  -0.00834577   -1.52072      -0.0316251   0.489052
  396.377      -0.0250981  -0.0250981   -1.51562      -0.0220544    1.00684
  396.826       0.0117558   0.0117558   -1.51052       0.0499935  -0.81902
  397.276      -0.0256082  -0.0256082   -1.50542       0.0476715   0.15568
  397.725       0.0178723   0.0178723   -1.50032      -0.05655   -1.21767
  398.174       0.0277881   0.0277881   -1.49522       0.0700471  -0.322212
  398.624       0.037451   0.037451   -1.49012       0.140233       0.744732
  399.073       0.215848       0.215848       -1.48502        1.13562        4.95395
  399.522        1.26357        1.26357       -1.47992        3.27712       -1.68593
  399.972        1.84722        1.85251       -1.46952       -1.21857       -10.5293
  400.421       0.818609       0.829203       -1.45912       -1.94432        5.03092
  400.87       0.539458       0.555349       -1.44873       0.342369        3.31492
  401.32       0.726704       0.747892       -1.43833       0.121562       0.623992
  401.769        1.09581        1.12229       -1.42793        1.62197        3.05969
  402.218        1.83554        1.86732       -1.41753       0.563415       -7.13925
  402.668        1.46257        1.49965       -1.40714       -1.86176       -2.77016
  403.117       0.647571       0.689946       -1.39674       -1.3363        2.42896
  403.566       0.369668       0.41734       -1.38634       0.121123       0.929234
  404.016       0.431772       0.48474       -1.37594       0.468786        1.46449
  404.465       0.646602       0.704868       -1.36555       0.519437      -0.150296
  404.914       0.77753       0.841093       -1.35515       0.126547      -0.170925
  405.364       0.91375       0.982609       -1.34475       0.170561       -1.69911
  405.813       0.997609        1.07177       -1.33436       0.273596      -0.0980541
  406.262        1.1238        1.20325       -1.32396       0.201431      -0.344874
  406.712        1.25294        1.33769       -1.31356       0.441325      -0.880794
  407.161        1.26987        1.35992       -1.30316      -0.0300269   0.198541
  407.61        1.2312        1.32654       -1.29277      -0.235735        1.13681
  408.06        1.18237        1.28301       -1.28237      -0.0514186    1.6931
  408.509        1.16435        1.27029       -1.27197      -0.01346    1.17608
  408.959        1.12846        1.23969       -1.26157      -0.00555696    1.33381
  409.408        1.15109        1.26762       -1.25118       0.0146092   -1.12677
  409.857        1.16119        1.28301       -1.24078       0.0366086  -0.510726
  410.307        1.19602        1.32314       -1.23038       0.26964       0.479008
  410.756        1.26979        1.40221       -1.21999       0.0630798  -0.13646
  411.205        1.29485        1.43257       -1.20959      -0.128166       0.449707
  411.654        1.25812        1.40114       -1.19919       0.205469       0.938397
  412.104        1.29146        1.43977       -1.18879      -0.0237978   -1.87929
  412.553        1.25006        1.40367       -1.1784      -0.411195      -0.130832
  413.002        1.23986        1.39876       -1.168      -0.14588      -0.745165
  413.452        1.2145        1.3787       -1.1576      -0.088523   -1.49542
  413.901        1.18433        1.35383       -1.14721       0.121324      -0.360545
  414.351        1.16198        1.33677       -1.13681       0.140673       0.65085
  414.8        1.13868        1.31877       -1.12641      -0.083592   0.295075
  415.249        1.16972        1.35511       -1.11602       0.02944   -2.33819
  415.699        1.09625        1.28694       -1.10562      -0.0184972  -0.818829
  416.148        1.08838        1.28436       -1.09522       0.0516484   -1.21925
  416.597        1.00816        1.20944       -1.08482      -0.108017        1.20277
  417.047        1.02489        1.23147       -1.07443      -0.187999       -1.89282
  417.496       0.957996        1.16987       -1.06403       0.0727551  -0.604246
  417.945       0.944414        1.16158       -1.05363       0.141751       -1.27641
  418.395       0.926132        1.1486       -1.04323       0.0791494   -1.15759
  418.844       0.863278        1.09104       -1.03284      -0.149273        1.07364
  419.293       0.862678        1.09574       -1.02244      -0.00616347  -0.785919
  419.743       0.838532        1.07689       -1.01204      -0.105343      -0.0868161
  420.192       0.822263        1.06592       -1.00164      -0.0548168   0.369395
  420.641       0.8185        1.06745      -0.991248      -0.240916      -0.544309
  421.091       0.805093        1.05934      -0.98085       0.0875075  -0.693254
  421.54       0.754897        1.01444      -0.970453      -0.133699       0.858106
  421.989       0.735433        1.00027      -0.960057      -0.0917401   0.551328
  422.439       0.769498        1.03964      -0.949659      -0.144001       -1.40998
  422.888       0.735707        1.01114      -0.939262      -0.108169      -0.461532
  423.337       0.701805       0.982538      -0.928864      -0.117804       0.139328
  423.787       0.673901       0.959931      -0.918467       0.11424        1.02548
  424.236       0.738324        1.02965      -0.908069       0.0836597   -1.9797
  424.685       0.679017       0.975641      -0.897673       0.246783       0.0925531
  425.135       0.684054       0.985974      -0.887276      -0.109646       0.100759
  425.584       0.721194        1.02841      -0.876878       0.111241       -1.56747
  426.033       0.676106       0.98862      -0.866482      -0.257936      -0.536278
  426.483       0.666027       0.983838      -0.856083       0.0436495  -0.599512
  426.932       0.680056        1.00316      -0.845687       0.337309       -1.14742
  427.381       0.67682        1.00522      -0.83529      -0.00855853   -1.49486
  427.831       0.651983       0.985685      -0.824892       0.136323      -0.376641
  428.28       0.63207       0.971068      -0.814496       0.206729       0.868183
  428.729       0.656338        1.00063      -0.804097      -0.0752315   -1.04987
  429.179       0.658269        1.00786      -0.793701       0.0953201   -1.40303
  429.628       0.653706        1.00859      -0.783304       0.0868648   -1.18528
  430.077       0.6266       0.986785      -0.772906       0.130486      -0.147475
  430.527       0.643236        1.00872      -0.76251       0.246804      -0.562477
  430.976       0.650925        1.0217      -0.752111       0.147343      -0.995065
  431.425       0.611044       0.987121      -0.741715      -0.0328709   0.0247839
  431.875       0.629552        1.01092      -0.731318      -0.0591396  -0.857037
  432.324       0.613666        1.00034      -0.72092      -0.113004      -0.114622
  432.774       0.606414       0.998381      -0.710524      -0.115266       0.0639483
  433.223       0.618535        1.0158      -0.700125      -0.102302      -0.397682
  433.672       0.612907        1.01547      -0.689729      -0.213352      -0.25478
  434.122       0.611082        1.01894      -0.67933      -0.0280136   0.105618
  434.571       0.617532        1.03069      -0.668934      -0.289675      -0.419016
  435.02       0.581888        1.00034      -0.658538      -0.106139       0.260994
  435.47       0.579822        1.00357      -0.648139      -0.00713119   0.366926
  435.919       0.605355        1.0344      -0.637743       0.0303955   -1.07269
  436.031       0.584858        1.01523      -0.635142      -0.182359       -1.89283